TEXTURE AT STRAIN =    1.0000
   0.605   2.692   0.605  <-- length of phase ellipsoid axes
  159.35   90.00  180.00  <-- Euler angles (deg) of phase ellipsoid axes
B       500
  107.72  124.13   42.78   0.0020000
 -116.94   40.08   44.92   0.0020000
  167.62   36.42   44.89   0.0020000
  147.46   64.58   28.24   0.0020000
  144.57   85.53    4.00   0.0020000
 -106.60    0.52    0.00   0.0020000
   12.62   63.77  -29.44   0.0020000
 -165.01  176.29  -26.66   0.0020000
  -48.04   55.04  134.74   0.0020000
  -66.39  128.77 -135.06   0.0020000
  -14.97  169.40  -45.43   0.0020000
  -43.31  179.33    0.00   0.0020000
   40.81   55.70   43.20   0.0020000
   26.00  115.13  152.10   0.0020000
   53.02  115.84  -28.97   0.0020000
  -89.42   88.06  178.33   0.0020000
  105.33    1.37 -161.31   0.0020000
   85.27   67.12   24.90   0.0020000
   77.88   59.10 -143.34   0.0020000
  -53.76   22.87  135.23   0.0020000
 -140.74  119.50  -34.48   0.0020000
   -8.41  145.34 -134.86   0.0020000
  -75.94    2.64   45.80   0.0020000
  179.40   37.21 -135.12   0.0020000
  129.86   77.23   76.70   0.0020000
  111.73  117.11  -59.06   0.0020000
  -63.47   90.26  -89.43   0.0020000
   -7.38   66.77  154.69   0.0020000
  -86.14   89.98  -90.91   0.0020000
  -37.99  125.18  -44.23   0.0020000
  119.27   77.96   77.64   0.0020000
   20.07   53.16  -44.87   0.0020000
  179.36  122.27  129.11   0.0020000
  -83.96   68.74 -113.05   0.0020000
  -43.16  127.46 -134.95   0.0020000
   31.28   59.57 -125.85   0.0020000
   22.94  135.36 -134.89   0.0020000
 -116.36   69.83 -158.47   0.0020000
 -122.95  113.51  115.68   0.0020000
   27.77   86.97   87.70   0.0020000
 -132.73  125.98   45.38   0.0020000
  114.55   88.92   90.79   0.0020000
  162.29   68.72 -157.26   0.0020000
  -60.74   54.22  134.98   0.0020000
  168.07   63.71 -119.60   0.0020000
 -153.25   91.15 -169.08   0.0020000
 -103.98   56.75   40.29   0.0020000
  130.34   56.30  132.08   0.0020000
  -49.92   55.85 -137.94   0.0020000
  -92.77   40.55 -135.10   0.0020000
  -96.58   28.66  -45.12   0.0020000
  -58.63  100.56  169.16   0.0020000
   37.09  124.95 -134.89   0.0020000
  166.68  161.80  -45.18   0.0020000
   70.72   54.73 -135.01   0.0020000
  -95.18  114.97  -27.70   0.0020000
   79.92  116.60  -59.79   0.0020000
  -27.03   49.93   44.91   0.0020000
  -86.68    0.41    0.00   0.0020000
   47.05   89.64   91.91   0.0020000
  157.38    0.82   -9.95   0.0020000
  -16.78  116.33  150.49   0.0020000
 -103.36   55.42 -134.46   0.0020000
  166.87  178.73  -64.69   0.0020000
  -52.41   55.60 -135.01   0.0020000
  165.19   55.05 -135.67   0.0020000
   20.08  141.76 -134.89   0.0020000
   41.00  125.21 -135.11   0.0020000
  -93.78   32.91   44.97   0.0020000
 -133.76   57.21 -139.93   0.0020000
   26.08   66.75   25.54   0.0020000
   -4.10   95.70  174.49   0.0020000
  114.57    8.98  135.11   0.0020000
 -119.22   70.74  -69.38   0.0020000
   65.55  173.28  132.41   0.0020000
  -58.82  178.95   24.50   0.0020000
    9.02  142.75 -134.89   0.0020000
  163.91   50.27   44.93   0.0020000
  135.76   78.15   78.15   0.0020000
    4.79  139.36   45.11   0.0020000
  178.57   65.39  152.72   0.0020000
   81.97    2.61  159.52   0.0020000
  -30.57  149.54  135.12   0.0020000
  -47.78  111.90 -156.38   0.0020000
   88.06    0.26    0.00   0.0020000
  154.42   76.33 -166.18   0.0020000
  178.11   61.05  146.24   0.0020000
   55.17   89.96   91.91   0.0020000
   12.89  124.17   47.38   0.0020000
   14.81   57.77  -50.74   0.0020000
  135.78    9.06   37.23   0.0020000
   73.94   24.49   45.02   0.0020000
   95.07   86.46  176.54   0.0020000
   30.09  126.33 -134.83   0.0020000
  -51.99   90.81   -0.27   0.0020000
 -173.79  141.28 -135.14   0.0020000
  124.43  129.23  134.93   0.0020000
   74.11   65.13  -62.39   0.0020000
  100.84  123.41  -48.55   0.0020000
 -176.05   84.34   83.81   0.0020000
   77.26   55.85  -42.66   0.0020000
  179.97   89.39   89.37   0.0020000
  130.86   56.57   41.12   0.0020000
  173.13  130.40  134.87   0.0020000
   40.27   90.34   89.89   0.0020000
  125.85  115.31  -61.57   0.0020000
   25.57    6.54   38.00   0.0020000
  -35.69   54.60  135.08   0.0020000
    1.71  124.24 -132.74   0.0020000
  -20.80   67.55 -114.37   0.0020000
   16.86   39.32 -134.85   0.0020000
   60.79  117.12   59.17   0.0020000
  -80.33  125.10  134.66   0.0020000
 -139.81   59.19 -143.45   0.0020000
  116.06  104.41 -104.97   0.0020000
  126.59  125.22  -44.65   0.0020000
   74.06   58.16   38.32   0.0020000
  -73.00   49.38  -45.01   0.0020000
 -143.84  114.07   26.41   0.0020000
    0.06  153.68  -44.40   0.0020000
   28.93    6.88  -44.95   0.0020000
   12.79   90.47   90.05   0.0020000
   66.97   77.98  169.52   0.0020000
  -90.53   55.73  136.98   0.0020000
 -149.08  144.05   44.83   0.0020000
  107.86  138.19   44.93   0.0020000
   88.85   89.85  -89.73   0.0020000
 -167.53  126.58  -45.12   0.0020000
 -160.44   54.72 -134.98   0.0020000
  -44.25  176.07 -119.29   0.0020000
    7.92   88.31    1.04   0.0020000
 -124.24  115.94  119.00   0.0020000
   43.10   91.92  -92.14   0.0020000
  -94.05   55.39  -47.07   0.0020000
 -152.89  122.55 -140.59   0.0020000
  -93.38  122.72  -39.89   0.0020000
  -81.25   83.10   84.65   0.0020000
  164.44   65.49  152.88   0.0020000
  -74.37   86.54    4.01   0.0020000
   30.99  120.86  143.40   0.0020000
  -45.55  142.31  135.07   0.0020000
  142.81  128.98  134.67   0.0020000
 -176.93   86.13   90.89   0.0020000
   91.59   32.48   45.02   0.0020000
 -155.46   99.25   80.78   0.0020000
  147.85  123.62   41.89   0.0020000
  137.42   59.46  125.98   0.0020000
   94.77   90.41   92.35   0.0020000
   29.36   90.07  -89.96   0.0020000
   87.38   56.28  131.96   0.0020000
 -168.91  124.97   45.83   0.0020000
  -50.83  124.95  -44.87   0.0020000
   62.02   68.90   22.72   0.0020000
 -119.36   63.64   60.13   0.0020000
  -99.93   83.09  -97.53   0.0020000
  100.33  144.79  135.06   0.0020000
  -93.54  128.45  -45.28   0.0020000
   46.89  145.09   45.10   0.0020000
  158.65   90.70   88.73   0.0020000
  173.92   84.39 -172.24   0.0020000
   22.92  118.08   57.86   0.0020000
  117.51   71.63 -161.48   0.0020000
 -116.02  120.40   35.78   0.0020000
 -137.65  125.80 -135.12   0.0020000
   85.08   61.43   57.16   0.0020000
   50.15  124.99   45.01   0.0020000
  -32.15   38.37  135.08   0.0020000
  102.81    1.68  139.62   0.0020000
  103.80   89.94  179.64   0.0020000
  120.12   58.99  143.18   0.0020000
  -35.30  116.80 -120.18   0.0020000
  -64.60  163.89  -44.54   0.0020000
 -173.39    3.50 -179.05   0.0020000
 -102.16   94.07   -6.20   0.0020000
  -79.02  125.84   44.05   0.0020000
  140.05  115.32  -28.39   0.0020000
  165.68  124.74  134.52   0.0020000
 -154.50  115.72 -151.33   0.0020000
 -115.48  116.26  -60.56   0.0020000
  110.02   83.59  -84.55   0.0020000
    2.77   53.22   45.80   0.0020000
  114.48   89.63 -179.13   0.0020000
 -130.75  117.14  120.70   0.0020000
 -100.61   55.12 -134.36   0.0020000
  126.77  122.18  129.10   0.0020000
  115.19   55.26   42.96   0.0020000
  167.09   62.98 -149.50   0.0020000
   35.77  115.27   61.88   0.0020000
 -160.17  116.00 -150.90   0.0020000
  144.84   71.99  -71.19   0.0020000
 -149.97   63.27  -59.84   0.0020000
  142.91   54.52  -45.19   0.0020000
  -77.83  126.63  -44.87   0.0020000
  -78.06   89.92   89.48   0.0020000
  -56.89   69.35  157.76   0.0020000
   72.26   91.77   -0.18   0.0020000
  165.39  176.39 -154.37   0.0020000
   37.12  178.87   78.99   0.0020000
   80.59  141.08 -134.94   0.0020000
 -118.04   57.49   39.36   0.0020000
   61.43  158.25  135.46   0.0020000
   24.79  125.18   44.62   0.0020000
   21.71  121.84 -128.33   0.0020000
   98.14   86.76  -93.08   0.0020000
  -30.69   93.43   -2.96   0.0020000
   43.23   64.91  -62.02   0.0020000
   98.81  150.00  -44.86   0.0020000
 -100.81   93.61   -0.15   0.0020000
   99.86   16.09   45.30   0.0020000
  -65.80  125.30  -45.56   0.0020000
  -74.29   60.11 -125.16   0.0020000
  168.81   22.91   44.47   0.0020000
  -54.58  143.61 -134.93   0.0020000
   25.34   89.48  179.70   0.0020000
  176.70  179.43    0.00   0.0020000
  104.88   80.61  -79.06   0.0020000
   22.28  124.83 -134.98   0.0020000
   -4.20   33.00 -134.84   0.0020000
   15.33   66.98 -154.77   0.0020000
 -153.76   72.82  161.92   0.0020000
   72.61  141.68  -44.92   0.0020000
 -159.05   87.88    3.00   0.0020000
 -167.52   55.61 -136.72   0.0020000
  -33.25  127.97  -45.02   0.0020000
  -45.11   89.32  179.35   0.0020000
  132.40   64.69 -151.93   0.0020000
  -29.34   96.56 -175.20   0.0020000
  -19.85   69.72   21.78   0.0020000
 -139.58   42.96 -135.12   0.0020000
 -147.97   89.92  -90.12   0.0020000
  -70.94   88.15  -91.49   0.0020000
  -10.76   84.38    5.91   0.0020000
  153.24  178.75   73.90   0.0020000
  138.84   57.46   50.45   0.0020000
  167.50  141.04  134.89   0.0020000
 -155.07   90.68   91.20   0.0020000
  165.61   98.63  -98.85   0.0020000
 -111.88  102.16  167.45   0.0020000
   60.36   78.69 -101.54   0.0020000
 -133.41   89.83 -179.24   0.0020000
   21.77   88.86   -0.02   0.0020000
   57.83   65.44 -116.99   0.0020000
  -11.06  137.68   45.11   0.0020000
  -66.52  177.17  -91.80   0.0020000
  -34.90   89.20  -90.21   0.0020000
  -66.24  118.66   57.00   0.0020000
 -122.24  115.52 -151.61   0.0020000
  111.82  128.07 -135.07   0.0020000
 -114.29  124.80   46.00   0.0020000
  -76.51   92.20  179.48   0.0020000
  -96.54   91.74   90.21   0.0020000
  119.79   88.20  -90.20   0.0020000
  -94.09   80.20 -170.46   0.0020000
  -36.92   81.43  172.40   0.0020000
   -2.40   54.52  134.68   0.0020000
  139.76   42.92   44.94   0.0020000
  -49.93  147.50 -135.12   0.0020000
   30.58  121.44   37.84   0.0020000
   20.06  127.19  -44.92   0.0020000
  119.49  124.53 -134.45   0.0020000
 -122.95   75.91 -165.47   0.0020000
  -86.28   89.69  -88.58   0.0020000
  -48.76  136.96   45.05   0.0020000
  122.20   46.62  134.93   0.0020000
 -147.24  145.84  134.83   0.0020000
  -20.60   53.54  -44.97   0.0020000
    8.77  162.21   44.60   0.0020000
  -83.20  176.70   19.30   0.0020000
 -152.13   93.41  -82.79   0.0020000
  -58.25  115.37 -118.17   0.0020000
  -43.23  124.52  133.64   0.0020000
 -174.01  136.32 -135.10   0.0020000
 -113.39  121.54  -52.31   0.0020000
  -81.57  121.49  127.69   0.0020000
  -90.78  125.24  134.83   0.0020000
    7.28  125.11  -45.97   0.0020000
 -124.58  120.99  -36.78   0.0020000
 -169.24  113.90   26.21   0.0020000
  101.68  146.04  135.06   0.0020000
   48.47  125.09   45.30   0.0020000
 -110.09  125.38  -45.37   0.0020000
  153.53   55.13  -44.55   0.0020000
 -101.58  129.56 -135.08   0.0020000
   74.68   86.08   92.46   0.0020000
 -103.17  174.40 -140.63   0.0020000
 -100.09  124.96  -44.95   0.0020000
   60.36  112.81  115.03   0.0020000
  146.52   63.85   60.64   0.0020000
  -31.92  118.18 -147.64   0.0020000
  -16.17    8.60 -134.73   0.0020000
  -82.59  125.66   45.44   0.0020000
   16.10   51.61  135.10   0.0020000
   62.61   64.05 -150.87   0.0020000
  -75.78   64.02   29.24   0.0020000
  171.08  177.45  -60.86   0.0020000
  -19.65   55.85  137.26   0.0020000
  139.17  117.11 -149.14   0.0020000
  -94.73   61.92  147.61   0.0020000
 -143.45  143.96  134.84   0.0020000
 -153.22  122.30  141.05   0.0020000
   27.95   79.97   -9.68   0.0020000
   22.41   45.71  135.08   0.0020000
    0.74   32.40   45.19   0.0020000
 -155.94   93.45   -0.10   0.0020000
  -87.15  179.60    0.00   0.0020000
  -38.47   91.92  -94.42   0.0020000
  -50.70   89.51  179.82   0.0020000
 -120.75   86.08  176.09   0.0020000
  168.27  111.77 -156.53   0.0020000
  -97.15   90.32   89.86   0.0020000
   38.20  120.14  125.59   0.0020000
  -52.15  124.70  134.23   0.0020000
 -178.55   55.05  133.58   0.0020000
 -170.90  125.18  135.97   0.0020000
 -149.12   46.86 -135.25   0.0020000
   60.44   94.24 -175.57   0.0020000
  -16.13   84.91   84.41   0.0020000
 -110.80   63.49   59.92   0.0020000
  -50.00   71.59 -160.43   0.0020000
 -171.40   90.44    2.12   0.0020000
   29.38  143.73   45.11   0.0020000
  107.72   89.15  -91.18   0.0020000
  -40.40   84.90  174.33   0.0020000
  107.85  125.71 -135.11   0.0020000
  -17.64    2.81 -172.95   0.0020000
  -36.34   89.83  -90.65   0.0020000
    4.39  127.22  134.84   0.0020000
   19.28  117.87   32.02   0.0020000
  107.35   89.24   -0.59   0.0020000
  173.66   66.94   25.04   0.0020000
  -57.14  114.26   63.36   0.0020000
   43.75   90.37  -89.73   0.0020000
   94.22  174.66   49.48   0.0020000
  -75.77   36.96  -44.96   0.0020000
   21.35  111.42   67.01   0.0020000
 -111.57   87.29   91.67   0.0020000
   10.61  141.07  135.11   0.0020000
   77.55  105.59 -163.63   0.0020000
  -24.49  115.84 -118.80   0.0020000
  170.17  122.65  -40.07   0.0020000
   88.04   28.78   44.99   0.0020000
   75.50  121.06 -142.84   0.0020000
   99.69   54.23   45.37   0.0020000
   34.90  172.17   38.56   0.0020000
  104.49  113.93   26.49   0.0020000
 -170.58  127.01 -135.34   0.0020000
   73.94   88.91    0.56   0.0020000
 -139.38  148.29   44.80   0.0020000
   49.00   56.37 -138.37   0.0020000
 -141.70  124.90   44.21   0.0020000
  115.77  126.27 -134.54   0.0020000
 -114.75  120.64   53.45   0.0020000
  -31.12  125.34  134.88   0.0020000
   93.99   90.91  -90.87   0.0020000
  104.98   12.01 -136.03   0.0020000
 -104.04   90.18  179.77   0.0020000
    9.96  106.33  -16.93   0.0020000
  -92.94   56.00   47.61   0.0020000
 -140.43  117.77   31.67   0.0020000
 -103.20   38.23 -135.08   0.0020000
  153.20   89.82   90.46   0.0020000
  -54.49   91.49   88.48   0.0020000
  158.92   97.11  174.43   0.0020000
 -157.40  119.88  -55.02   0.0020000
  130.29   62.14 -148.24   0.0020000
  153.32  174.18  -18.87   0.0020000
   23.13   92.65  -94.84   0.0020000
  119.22   55.81  135.87   0.0020000
  -27.38  178.12   24.07   0.0020000
  -50.05   92.39 -177.79   0.0020000
  113.67  141.71  -44.99   0.0020000
  129.27   56.19  138.37   0.0020000
 -124.14   55.72  -47.15   0.0020000
 -101.40    9.46  -47.68   0.0020000
    9.94  107.32  -72.25   0.0020000
   66.91   88.13  -88.95   0.0020000
 -114.88  147.27 -135.12   0.0020000
  -14.06   60.12  -54.78   0.0020000
   52.66   38.49  -44.88   0.0020000
  -37.44   65.49   62.86   0.0020000
 -102.16   66.26  -63.85   0.0020000
   22.97  126.14  134.92   0.0020000
 -177.54  140.27  134.88   0.0020000
  163.61   40.28  134.89   0.0020000
  -97.39  122.51  -39.42   0.0020000
   35.67   90.13  179.84   0.0020000
    6.88  124.34  -44.08   0.0020000
   88.62   54.46 -135.00   0.0020000
  172.59  133.05  134.90   0.0020000
  118.69  111.34  113.10   0.0020000
  134.25  166.10  135.20   0.0020000
  129.31   94.76  -83.90   0.0020000
 -122.67   92.01  -87.31   0.0020000
  145.04   54.15  135.28   0.0020000
   38.03   86.90   86.82   0.0020000
 -169.99  131.27 -135.07   0.0020000
  -67.88  131.58  -45.11   0.0020000
 -171.66   55.67 -132.91   0.0020000
   77.41   54.07   44.75   0.0020000
   70.00   59.93  -54.68   0.0020000
   43.29   17.61  -45.08   0.0020000
 -163.03   27.74  134.62   0.0020000
 -165.47   93.63    4.35   0.0020000
 -129.06   39.94  -45.10   0.0020000
   56.39   64.33 -151.26   0.0020000
 -143.75  122.19  -50.86   0.0020000
 -172.71   99.33  -97.47   0.0020000
 -119.12  117.30 -149.09   0.0020000
 -115.56   62.55  148.56   0.0020000
  -86.72   57.51   50.12   0.0020000
 -161.44  119.19   55.91   0.0020000
  123.99  143.21  -45.01   0.0020000
  -41.92   64.80 -118.12   0.0020000
    6.50   90.00  -90.49   0.0020000
  106.89  172.99 -114.58   0.0020000
  -14.82   58.77 -142.53   0.0020000
  -68.73  114.88   27.53   0.0020000
  -52.58   67.92 -155.94   0.0020000
  154.43   51.84 -135.14   0.0020000
  123.87  179.64    0.00   0.0020000
   64.00  126.83  135.20   0.0020000
  109.44   89.98 -179.26   0.0020000
    8.14  124.60 -136.54   0.0020000
  112.32  133.41 -134.97   0.0020000
   -7.96   58.19   51.66   0.0020000
 -108.07  112.67  155.31   0.0020000
 -157.38  112.09  -23.96   0.0020000
 -160.58  117.01  -59.45   0.0020000
  -82.51  145.60  135.00   0.0020000
    7.53   64.10   29.16   0.0020000
  175.25  111.27  112.80   0.0020000
   61.92   57.91 -141.22   0.0020000
 -173.50  137.72 -135.14   0.0020000
  -50.24   36.85 -134.90   0.0020000
  156.54  116.10  -29.47   0.0020000
   30.11    0.98 -135.93   0.0020000
   60.59   54.80  134.71   0.0020000
 -109.43   45.07  -44.86   0.0020000
  -75.94   59.15  143.24   0.0020000
 -146.11   88.86    1.84   0.0020000
   95.01   99.71   99.84   0.0020000
   53.19  112.83  -24.92   0.0020000
   -5.54   61.60   32.90   0.0020000
   -0.05  118.79  123.39   0.0020000
   57.32  178.92 -135.44   0.0020000
  -67.43  133.36  134.96   0.0020000
  177.93    3.36 -155.50   0.0020000
   86.60  112.44  -65.44   0.0020000
  -68.89   94.99  175.34   0.0020000
   98.73   41.29  134.94   0.0020000
 -167.19    6.79  -43.51   0.0020000
   69.85  124.73   45.72   0.0020000
  115.22   41.74   44.97   0.0020000
  168.78  114.41 -153.06   0.0020000
 -165.39   36.41 -135.11   0.0020000
  121.93  122.21 -129.19   0.0020000
  -94.71   54.76  -45.27   0.0020000
 -106.07   64.57  118.45   0.0020000
  155.18   86.04   85.77   0.0020000
  -70.34   61.63 -147.20   0.0020000
   33.90  114.86  117.73   0.0020000
 -167.70   64.40   61.30   0.0020000
   -3.38  110.45  -21.75   0.0020000
  -11.95  129.67   45.07   0.0020000
   44.14   56.80  130.71   0.0020000
    9.18   93.95   90.28   0.0020000
 -151.13    1.39 -138.51   0.0020000
  -44.68   62.11  147.94   0.0020000
  -34.22   62.22   31.86   0.0020000
    4.82  137.88  135.13   0.0020000
 -126.24  127.23  -45.01   0.0020000
  153.90    5.85  131.97   0.0020000
  -35.76  115.39 -118.16   0.0020000
   51.76  121.08 -127.07   0.0020000
 -129.83  115.45  -61.70   0.0020000
   28.14  171.62  132.41   0.0020000
  -62.59  129.99   44.85   0.0020000
  -74.99   62.73   31.14   0.0020000
 -124.91  140.07  -45.11   0.0020000
 -163.68   50.20 -135.10   0.0020000
    4.89   55.56  136.57   0.0020000
   36.75   89.24    0.38   0.0020000
 -160.53  117.57 -121.58   0.0020000
   66.72   42.67  -44.83   0.0020000
  136.23    5.13 -138.44   0.0020000
  112.23   89.47 -179.38   0.0020000
 -103.21   51.10  134.92   0.0020000
  -99.51   89.15  178.77   0.0020000
  112.65  117.40  121.35   0.0020000
  148.70  171.86 -133.97   0.0020000
 -126.32   93.56    2.68   0.0020000
 -135.32   85.95   86.38   0.0020000
   53.85   65.14   62.53   0.0020000
  154.99  177.09  -41.98   0.0020000
 -168.71  121.52  -38.64   0.0020000
  -55.29   97.20    4.27   0.0020000
  105.24   88.47   -1.56   0.0020000
   27.57  124.15   47.32   0.0020000
   -7.86  124.99   45.48   0.0020000
 -124.30   92.63  -86.14   0.0020000
